# exported by xylib from a bruker_raw file
# AMPLIFIER_GAIN: 120
# DISCRIMINATOR_1_LOWER_LEVEL: 0.3
# GENERATOR_CURRENT: 30
# GENERATOR_VOLTAGE: 40
# HIGH_VOLTAGE: 727
# ROTATION_SPEED [rpm]: 0
# START_2THETA: 60
# START_THETA: 30
# STEPS: 3001
# STEP_SIZE: 0.006
# TIME_PER_STEP: 16.1061
# USED_LAMBDA: 1.5406
# column_1	column_2
60.000000	362.000000
60.006000	354.000000
60.012000	373.000000
60.018000	353.000000
60.024000	361.000000
60.030000	372.000000
60.036000	344.000000
60.042000	340.000000
60.048000	368.000000
60.054000	334.000000
60.060000	387.000000
60.066000	388.000000
60.072000	403.000000
60.078000	334.000000
60.084000	358.000000
60.090000	356.000000
60.096000	343.000000
60.102000	381.000000
60.108000	340.000000
60.114000	382.000000
60.120000	394.000000
60.126000	389.000000
60.132000	372.000000
60.138000	376.000000
60.144000	357.000000
60.150000	345.000000
60.156000	348.000000
60.162000	374.000000
60.168000	360.000000
60.174000	381.000000
60.180000	355.000000
60.186000	387.000000
60.192000	380.000000
60.198000	364.000000
60.204000	380.000000
60.210000	347.000000
60.216000	357.000000
60.222000	367.000000
60.228000	364.000000
60.234000	362.000000
60.240000	370.000000
60.246000	348.000000
60.252000	350.000000
60.258000	420.000000
60.264000	361.000000
60.270000	329.000000
60.276000	366.000000
60.282000	371.000000
60.288000	406.000000
60.294000	350.000000
60.300000	383.000000
60.306000	353.000000
60.312000	363.000000
60.318000	386.000000
60.324000	366.000000
60.330000	393.000000
60.336000	342.000000
60.342000	334.000000
60.348000	343.000000
60.354000	382.000000
60.360000	382.000000
60.366000	411.000000
60.372000	371.000000
60.378000	362.000000
60.384000	340.000000
60.390000	353.000000
60.396000	374.000000
60.402000	371.000000
60.408000	349.000000
60.414000	359.000000
60.420000	368.000000
60.426000	354.000000
60.432000	383.000000
60.438000	360.000000
60.444000	353.000000
60.450000	351.000000
60.456000	346.000000
60.462000	359.000000
60.468000	400.000000
60.474000	376.000000
60.480000	368.000000
60.486000	357.000000
60.492000	399.000000
60.498000	390.000000
60.504000	388.000000
60.510000	340.000000
60.516000	341.000000
60.522000	338.000000
60.528000	385.000000
60.534000	335.000000
60.540000	345.000000
60.546000	398.000000
60.552000	403.000000
60.558000	377.000000
60.564000	378.000000
60.570000	390.000000
60.576000	359.000000
60.582000	398.000000
60.588000	356.000000
60.594000	355.000000
60.600000	388.000000
60.606000	377.000000
60.612000	365.000000
60.618000	345.000000
60.624000	359.000000
60.630000	388.000000
60.636000	357.000000
60.642000	325.000000
60.648000	351.000000
60.654000	361.000000
60.660000	375.000000
60.666000	379.000000
60.672000	391.000000
60.678000	367.000000
60.684000	376.000000
60.690000	375.000000
60.696000	370.000000
60.702000	355.000000
60.708000	350.000000
60.714000	377.000000
60.720000	373.000000
60.726000	337.000000
60.732000	379.000000
60.738000	350.000000
60.744000	361.000000
60.750000	340.000000
60.756000	356.000000
60.762000	354.000000
60.768000	363.000000
60.774000	349.000000
60.780000	351.000000
60.786000	369.000000
60.792000	361.000000
60.798000	337.000000
60.804000	378.000000
60.810000	366.000000
60.816000	352.000000
60.822000	343.000000
60.828000	352.000000
60.834000	385.000000
60.840000	337.000000
60.846000	367.000000
60.852000	384.000000
60.858000	335.000000
60.864000	349.000000
60.870000	349.000000
60.876000	379.000000
60.882000	387.000000
60.888000	369.000000
60.894000	339.000000
60.900000	389.000000
60.906000	373.000000
60.912000	365.000000
60.918000	352.000000
60.924000	362.000000
60.930000	361.000000
60.936000	358.000000
60.942000	343.000000
60.948000	362.000000
60.954000	366.000000
60.960000	369.000000
60.966000	375.000000
60.972000	397.000000
60.978000	378.000000
60.984000	412.000000
60.990000	389.000000
60.996000	372.000000
61.002000	386.000000
61.008000	401.000000
61.014000	360.000000
61.020000	333.000000
61.026000	372.000000
61.032000	366.000000
61.038000	364.000000
61.044000	347.000000
61.050000	401.000000
61.056000	368.000000
61.062000	379.000000
61.068000	387.000000
61.074000	356.000000
61.080000	380.000000
61.086000	378.000000
61.092000	386.000000
61.098000	344.000000
61.104000	401.000000
61.110000	404.000000
61.116000	377.000000
61.122000	376.000000
61.128000	384.000000
61.134000	365.000000
61.140000	343.000000
61.146000	385.000000
61.152000	364.000000
61.158000	358.000000
61.164000	357.000000
61.170000	372.000000
61.176000	397.000000
61.182000	366.000000
61.188000	373.000000
61.194000	372.000000
61.200000	399.000000
61.206000	383.000000
61.212000	358.000000
61.218000	383.000000
61.224000	363.000000
61.230000	397.000000
61.236000	385.000000
61.242000	403.000000
61.248000	372.000000
61.254000	379.000000
61.260000	357.000000
61.266000	400.000000
61.272000	389.000000
61.278000	384.000000
61.284000	382.000000
61.290000	395.000000
61.296000	386.000000
61.302000	406.000000
61.308000	371.000000
61.314000	382.000000
61.320000	420.000000
61.326000	408.000000
61.332000	362.000000
61.338000	395.000000
61.344000	385.000000
61.350000	388.000000
61.356000	368.000000
61.362000	356.000000
61.368000	402.000000
61.374000	387.000000
61.380000	388.000000
61.386000	395.000000
61.392000	397.000000
61.398000	407.000000
61.404000	410.000000
61.410000	403.000000
61.416000	401.000000
61.422000	404.000000
61.428000	361.000000
61.434000	378.000000
61.440000	377.000000
61.446000	369.000000
61.452000	396.000000
61.458000	388.000000
61.464000	389.000000
61.470000	348.000000
61.476000	402.000000
61.482000	383.000000
61.488000	376.000000
61.494000	388.000000
61.500000	391.000000
61.506000	393.000000
61.512000	374.000000
61.518000	371.000000
61.524000	362.000000
61.530000	434.000000
61.536000	405.000000
61.542000	400.000000
61.548000	395.000000
61.554000	406.000000
61.560000	362.000000
61.566000	385.000000
61.572000	390.000000
61.578000	440.000000
61.584000	365.000000
61.590000	466.000000
61.596000	414.000000
61.602000	409.000000
61.608000	413.000000
61.614000	406.000000
61.620000	416.000000
61.626000	409.000000
61.632000	417.000000
61.638000	406.000000
61.644000	421.000000
61.650000	418.000000
61.656000	395.000000
61.662000	417.000000
61.668000	393.000000
61.674000	445.000000
61.680000	429.000000
61.686000	369.000000
61.692000	426.000000
61.698000	416.000000
61.704000	477.000000
61.710000	384.000000
61.716000	401.000000
61.722000	439.000000
61.728000	426.000000
61.734000	420.000000
61.740000	414.000000
61.746000	377.000000
61.752000	428.000000
61.758000	424.000000
61.764000	428.000000
61.770000	389.000000
61.776000	401.000000
61.782000	436.000000
61.788000	493.000000
61.794000	453.000000
61.800000	428.000000
61.806000	435.000000
61.812000	416.000000
61.818000	405.000000
61.824000	435.000000
61.830000	433.000000
61.836000	455.000000
61.842000	434.000000
61.848000	460.000000
61.854000	456.000000
61.860000	478.000000
61.866000	413.000000
61.872000	463.000000
61.878000	436.000000
61.884000	454.000000
61.890000	453.000000
61.896000	449.000000
61.902000	494.000000
61.908000	472.000000
61.914000	471.000000
61.920000	454.000000
61.926000	509.000000
61.932000	464.000000
61.938000	496.000000
61.944000	485.000000
61.950000	472.000000
61.956000	482.000000
61.962000	476.000000
61.968000	496.000000
61.974000	505.000000
61.980000	493.000000
61.986000	500.000000
61.992000	514.000000
61.998000	551.000000
62.004000	499.000000
62.010000	498.000000
62.016000	516.000000
62.022000	498.000000
62.028000	549.000000
62.034000	565.000000
62.040000	573.000000
62.046000	546.000000
62.052000	510.000000
62.058000	550.000000
62.064000	569.000000
62.070000	552.000000
62.076000	573.000000
62.082000	567.000000
62.088000	611.000000
62.094000	611.000000
62.100000	572.000000
62.106000	618.000000
62.112000	601.000000
62.118000	586.000000
62.124000	607.000000
62.130000	620.000000
62.136000	610.000000
62.142000	633.000000
62.148000	651.000000
62.154000	676.000000
62.160000	633.000000
62.166000	670.000000
62.172000	658.000000
62.178000	646.000000
62.184000	727.000000
62.190000	697.000000
62.196000	747.000000
62.202000	793.000000
62.208000	751.000000
62.214000	775.000000
62.220000	751.000000
62.226000	849.000000
62.232000	787.000000
62.238000	774.000000
62.244000	788.000000
62.250000	864.000000
62.256000	904.000000
62.262000	925.000000
62.268000	906.000000
62.274000	859.000000
62.280000	944.000000
62.286000	971.000000
62.292000	972.000000
62.298000	1003.000000
62.304000	1060.000000
62.310000	1026.000000
62.316000	1094.000000
62.322000	1097.000000
62.328000	1106.000000
62.334000	1204.000000
62.340000	1194.000000
62.346000	1218.000000
62.352000	1250.000000
62.358000	1322.000000
62.364000	1319.000000
62.370000	1387.000000
62.376000	1414.000000
62.382000	1508.000000
62.388000	1506.000000
62.394000	1519.000000
62.400000	1624.000000
62.406000	1686.000000
62.412000	1697.000000
62.418000	1799.000000
62.424000	1807.000000
62.430000	1768.000000
62.436000	1950.000000
62.442000	1927.000000
62.448000	1998.000000
62.454000	2018.000000
62.460000	2132.000000
62.466000	2276.000000
62.472000	2089.000000
62.478000	2226.000000
62.484000	2278.000000
62.490000	2362.000000
62.496000	2246.000000
62.502000	2318.000000
62.508000	2273.000000
62.514000	2309.000000
62.520000	2332.000000
62.526000	2300.000000
62.532000	2356.000000
62.538000	2295.000000
62.544000	2339.000000
62.550000	2362.000000
62.556000	2288.000000
62.562000	2230.000000
62.568000	2241.000000
62.574000	2251.000000
62.580000	2168.000000
62.586000	2102.000000
62.592000	2004.000000
62.598000	2064.000000
62.604000	1880.000000
62.610000	1919.000000
62.616000	1915.000000
62.622000	1965.000000
62.628000	1952.000000
62.634000	1853.000000
62.640000	1955.000000
62.646000	1895.000000
62.652000	1773.000000
62.658000	1907.000000
62.664000	1735.000000
62.670000	1688.000000
62.676000	1795.000000
62.682000	1700.000000
62.688000	1703.000000
62.694000	1697.000000
62.700000	1687.000000
62.706000	1528.000000
62.712000	1652.000000
62.718000	1482.000000
62.724000	1515.000000
62.730000	1474.000000
62.736000	1356.000000
62.742000	1416.000000
62.748000	1347.000000
62.754000	1282.000000
62.760000	1248.000000
62.766000	1214.000000
62.772000	1148.000000
62.778000	1161.000000
62.784000	1138.000000
62.790000	1155.000000
62.796000	1069.000000
62.802000	997.000000
62.808000	1009.000000
62.814000	936.000000
62.820000	956.000000
62.826000	914.000000
62.832000	909.000000
62.838000	846.000000
62.844000	912.000000
62.850000	821.000000
62.856000	859.000000
62.862000	791.000000
62.868000	813.000000
62.874000	791.000000
62.880000	671.000000
62.886000	735.000000
62.892000	746.000000
62.898000	705.000000
62.904000	707.000000
62.910000	693.000000
62.916000	666.000000
62.922000	633.000000
62.928000	665.000000
62.934000	621.000000
62.940000	595.000000
62.946000	633.000000
62.952000	578.000000
62.958000	599.000000
62.964000	642.000000
62.970000	597.000000
62.976000	585.000000
62.982000	569.000000
62.988000	570.000000
62.994000	566.000000
63.000000	563.000000
63.006000	549.000000
63.012000	546.000000
63.018000	515.000000
63.024000	494.000000
63.030000	558.000000
63.036000	535.000000
63.042000	541.000000
63.048000	515.000000
63.054000	510.000000
63.060000	522.000000
63.066000	490.000000
63.072000	534.000000
63.078000	501.000000
63.084000	494.000000
63.090000	512.000000
63.096000	500.000000
63.102000	471.000000
63.108000	499.000000
63.114000	485.000000
63.120000	501.000000
63.126000	484.000000
63.132000	468.000000
63.138000	455.000000
63.144000	503.000000
63.150000	500.000000
63.156000	471.000000
63.162000	498.000000
63.168000	502.000000
63.174000	498.000000
63.180000	532.000000
63.186000	493.000000
63.192000	506.000000
63.198000	495.000000
63.204000	486.000000
63.210000	458.000000
63.216000	491.000000
63.222000	485.000000
63.228000	443.000000
63.234000	448.000000
63.240000	462.000000
63.246000	505.000000
63.252000	436.000000
63.258000	490.000000
63.264000	432.000000
63.270000	447.000000
63.276000	451.000000
63.282000	447.000000
63.288000	433.000000
63.294000	435.000000
63.300000	471.000000
63.306000	467.000000
63.312000	415.000000
63.318000	445.000000
63.324000	444.000000
63.330000	458.000000
63.336000	436.000000
63.342000	461.000000
63.348000	487.000000
63.354000	392.000000
63.360000	446.000000
63.366000	468.000000
63.372000	426.000000
63.378000	415.000000
63.384000	409.000000
63.390000	413.000000
63.396000	442.000000
63.402000	429.000000
63.408000	407.000000
63.414000	420.000000
63.420000	398.000000
63.426000	384.000000
63.432000	396.000000
63.438000	412.000000
63.444000	395.000000
63.450000	391.000000
63.456000	408.000000
63.462000	373.000000
63.468000	363.000000
63.474000	382.000000
63.480000	404.000000
63.486000	422.000000
63.492000	407.000000
63.498000	378.000000
63.504000	379.000000
63.510000	370.000000
63.516000	370.000000
63.522000	403.000000
63.528000	353.000000
63.534000	364.000000
63.540000	381.000000
63.546000	381.000000
63.552000	384.000000
63.558000	378.000000
63.564000	368.000000
63.570000	365.000000
63.576000	405.000000
63.582000	373.000000
63.588000	405.000000
63.594000	398.000000
63.600000	378.000000
63.606000	354.000000
63.612000	381.000000
63.618000	399.000000
63.624000	377.000000
63.630000	387.000000
63.636000	363.000000
63.642000	392.000000
63.648000	384.000000
63.654000	360.000000
63.660000	365.000000
63.666000	351.000000
63.672000	370.000000
63.678000	357.000000
63.684000	361.000000
63.690000	363.000000
63.696000	362.000000
63.702000	382.000000
63.708000	337.000000
63.714000	372.000000
63.720000	340.000000
63.726000	365.000000
63.732000	384.000000
63.738000	383.000000
63.744000	349.000000
63.750000	387.000000
63.756000	330.000000
63.762000	382.000000
63.768000	360.000000
63.774000	337.000000
63.780000	376.000000
63.786000	384.000000
63.792000	385.000000
63.798000	366.000000
63.804000	359.000000
63.810000	404.000000
63.816000	396.000000
63.822000	351.000000
63.828000	374.000000
63.834000	393.000000
63.840000	362.000000
63.846000	357.000000
63.852000	395.000000
63.858000	374.000000
63.864000	367.000000
63.870000	367.000000
63.876000	371.000000
63.882000	365.000000
63.888000	376.000000
63.894000	351.000000
63.900000	358.000000
63.906000	380.000000
63.912000	341.000000
63.918000	379.000000
63.924000	373.000000
63.930000	333.000000
63.936000	365.000000
63.942000	353.000000
63.948000	344.000000
63.954000	348.000000
63.960000	326.000000
63.966000	359.000000
63.972000	354.000000
63.978000	333.000000
63.984000	343.000000
63.990000	368.000000
63.996000	358.000000
64.002000	373.000000
64.008000	358.000000
64.014000	350.000000
64.020000	387.000000
64.026000	340.000000
64.032000	366.000000
64.038000	328.000000
64.044000	347.000000
64.050000	347.000000
64.056000	371.000000
64.062000	316.000000
64.068000	337.000000
64.074000	328.000000
64.080000	327.000000
64.086000	338.000000
64.092000	331.000000
64.098000	352.000000
64.104000	356.000000
64.110000	364.000000
64.116000	374.000000
64.122000	366.000000
64.128000	360.000000
64.134000	325.000000
64.140000	351.000000
64.146000	353.000000
64.152000	343.000000
64.158000	347.000000
64.164000	373.000000
64.170000	351.000000
64.176000	353.000000
64.182000	347.000000
64.188000	333.000000
64.194000	356.000000
64.200000	331.000000
64.206000	355.000000
64.212000	348.000000
64.218000	347.000000
64.224000	330.000000
64.230000	353.000000
64.236000	365.000000
64.242000	343.000000
64.248000	333.000000
64.254000	296.000000
64.260000	352.000000
64.266000	337.000000
64.272000	334.000000
64.278000	350.000000
64.284000	343.000000
64.290000	356.000000
64.296000	346.000000
64.302000	349.000000
64.308000	330.000000
64.314000	341.000000
64.320000	341.000000
64.326000	340.000000
64.332000	351.000000
64.338000	359.000000
64.344000	335.000000
64.350000	333.000000
64.356000	389.000000
64.362000	355.000000
64.368000	354.000000
64.374000	320.000000
64.380000	332.000000
64.386000	331.000000
64.392000	307.000000
64.398000	322.000000
64.404000	342.000000
64.410000	332.000000
64.416000	330.000000
64.422000	375.000000
64.428000	345.000000
64.434000	352.000000
64.440000	330.000000
64.446000	323.000000
64.452000	332.000000
64.458000	328.000000
64.464000	366.000000
64.470000	360.000000
64.476000	357.000000
64.482000	372.000000
64.488000	337.000000
64.494000	346.000000
64.500000	340.000000
64.506000	323.000000
64.512000	366.000000
64.518000	330.000000
64.524000	360.000000
64.530000	366.000000
64.536000	345.000000
64.542000	353.000000
64.548000	352.000000
64.554000	334.000000
64.560000	328.000000
64.566000	347.000000
64.572000	322.000000
64.578000	336.000000
64.584000	364.000000
64.590000	382.000000
64.596000	350.000000
64.602000	353.000000
64.608000	350.000000
64.614000	345.000000
64.620000	360.000000
64.626000	367.000000
64.632000	343.000000
64.638000	331.000000
64.644000	334.000000
64.650000	397.000000
64.656000	357.000000
64.662000	341.000000
64.668000	337.000000
64.674000	382.000000
64.680000	337.000000
64.686000	348.000000
64.692000	360.000000
64.698000	343.000000
64.704000	345.000000
64.710000	363.000000
64.716000	351.000000
64.722000	321.000000
64.728000	355.000000
64.734000	336.000000
64.740000	393.000000
64.746000	335.000000
64.752000	375.000000
64.758000	351.000000
64.764000	350.000000
64.770000	354.000000
64.776000	376.000000
64.782000	342.000000
64.788000	332.000000
64.794000	342.000000
64.800000	336.000000
64.806000	324.000000
64.812000	326.000000
64.818000	343.000000
64.824000	348.000000
64.830000	342.000000
64.836000	330.000000
64.842000	362.000000
64.848000	369.000000
64.854000	316.000000
64.860000	352.000000
64.866000	363.000000
64.872000	341.000000
64.878000	360.000000
64.884000	344.000000
64.890000	347.000000
64.896000	345.000000
64.902000	361.000000
64.908000	369.000000
64.914000	370.000000
64.920000	341.000000
64.926000	329.000000
64.932000	351.000000
64.938000	348.000000
64.944000	380.000000
64.950000	365.000000
64.956000	337.000000
64.962000	345.000000
64.968000	354.000000
64.974000	375.000000
64.980000	315.000000
64.986000	361.000000
64.992000	327.000000
64.998000	376.000000
65.004000	320.000000
65.010000	357.000000
65.016000	343.000000
65.022000	394.000000
65.028000	342.000000
65.034000	339.000000
65.040000	343.000000
65.046000	385.000000
65.052000	325.000000
65.058000	353.000000
65.064000	375.000000
65.070000	332.000000
65.076000	348.000000
65.082000	375.000000
65.088000	329.000000
65.094000	372.000000
65.100000	379.000000
65.106000	326.000000
65.112000	347.000000
65.118000	378.000000
65.124000	377.000000
65.130000	350.000000
65.136000	363.000000
65.142000	339.000000
65.148000	363.000000
65.154000	347.000000
65.160000	337.000000
65.166000	370.000000
65.172000	398.000000
65.178000	392.000000
65.184000	342.000000
65.190000	396.000000
65.196000	384.000000
65.202000	343.000000
65.208000	368.000000
65.214000	380.000000
65.220000	362.000000
65.226000	373.000000
65.232000	344.000000
65.238000	407.000000
65.244000	401.000000
65.250000	362.000000
65.256000	384.000000
65.262000	381.000000
65.268000	409.000000
65.274000	373.000000
65.280000	369.000000
65.286000	379.000000
65.292000	410.000000
65.298000	432.000000
65.304000	400.000000
65.310000	415.000000
65.316000	405.000000
65.322000	355.000000
65.328000	405.000000
65.334000	417.000000
65.340000	420.000000
65.346000	395.000000
65.352000	403.000000
65.358000	406.000000
65.364000	415.000000
65.370000	433.000000
65.376000	411.000000
65.382000	431.000000
65.388000	425.000000
65.394000	424.000000
65.400000	403.000000
65.406000	419.000000
65.412000	422.000000
65.418000	445.000000
65.424000	445.000000
65.430000	398.000000
65.436000	497.000000
65.442000	478.000000
65.448000	453.000000
65.454000	457.000000
65.460000	435.000000
65.466000	449.000000
65.472000	455.000000
65.478000	502.000000
65.484000	480.000000
65.490000	466.000000
65.496000	482.000000
65.502000	489.000000
65.508000	493.000000
65.514000	483.000000
65.520000	476.000000
65.526000	459.000000
65.532000	566.000000
65.538000	526.000000
65.544000	515.000000
65.550000	562.000000
65.556000	550.000000
65.562000	587.000000
65.568000	547.000000
65.574000	588.000000
65.580000	628.000000
65.586000	617.000000
65.592000	631.000000
65.598000	647.000000
65.604000	642.000000
65.610000	654.000000
65.616000	681.000000
65.622000	700.000000
65.628000	690.000000
65.634000	737.000000
65.640000	734.000000
65.646000	777.000000
65.652000	752.000000
65.658000	700.000000
65.664000	832.000000
65.670000	845.000000
65.676000	780.000000
65.682000	768.000000
65.688000	872.000000
65.694000	875.000000
65.700000	862.000000
65.706000	874.000000
65.712000	892.000000
65.718000	857.000000
65.724000	972.000000
65.730000	972.000000
65.736000	942.000000
65.742000	946.000000
65.748000	904.000000
65.754000	872.000000
65.760000	939.000000
65.766000	907.000000
65.772000	915.000000
65.778000	896.000000
65.784000	870.000000
65.790000	900.000000
65.796000	814.000000
65.802000	863.000000
65.808000	847.000000
65.814000	835.000000
65.820000	830.000000
65.826000	805.000000
65.832000	808.000000
65.838000	781.000000
65.844000	837.000000
65.850000	779.000000
65.856000	809.000000
65.862000	722.000000
65.868000	721.000000
65.874000	799.000000
65.880000	726.000000
65.886000	759.000000
65.892000	720.000000
65.898000	766.000000
65.904000	693.000000
65.910000	710.000000
65.916000	721.000000
65.922000	705.000000
65.928000	738.000000
65.934000	667.000000
65.940000	699.000000
65.946000	668.000000
65.952000	638.000000
65.958000	670.000000
65.964000	671.000000
65.970000	638.000000
65.976000	599.000000
65.982000	599.000000
65.988000	619.000000
65.994000	596.000000
66.000000	576.000000
66.006000	571.000000
66.012000	511.000000
66.018000	557.000000
66.024000	532.000000
66.030000	565.000000
66.036000	529.000000
66.042000	514.000000
66.048000	528.000000
66.054000	471.000000
66.060000	495.000000
66.066000	452.000000
66.072000	459.000000
66.078000	446.000000
66.084000	475.000000
66.090000	471.000000
66.096000	405.000000
66.102000	492.000000
66.108000	445.000000
66.114000	449.000000
66.120000	431.000000
66.126000	447.000000
66.132000	431.000000
66.138000	443.000000
66.144000	428.000000
66.150000	421.000000
66.156000	386.000000
66.162000	442.000000
66.168000	403.000000
66.174000	387.000000
66.180000	404.000000
66.186000	378.000000
66.192000	419.000000
66.198000	366.000000
66.204000	397.000000
66.210000	367.000000
66.216000	386.000000
66.222000	388.000000
66.228000	380.000000
66.234000	380.000000
66.240000	359.000000
66.246000	402.000000
66.252000	393.000000
66.258000	395.000000
66.264000	394.000000
66.270000	400.000000
66.276000	397.000000
66.282000	391.000000
66.288000	362.000000
66.294000	339.000000
66.300000	351.000000
66.306000	331.000000
66.312000	390.000000
66.318000	367.000000
66.324000	346.000000
66.330000	350.000000
66.336000	401.000000
66.342000	398.000000
66.348000	334.000000
66.354000	379.000000
66.360000	354.000000
66.366000	381.000000
66.372000	372.000000
66.378000	339.000000
66.384000	376.000000
66.390000	360.000000
66.396000	364.000000
66.402000	373.000000
66.408000	355.000000
66.414000	329.000000
66.420000	337.000000
66.426000	367.000000
66.432000	361.000000
66.438000	337.000000
66.444000	353.000000
66.450000	328.000000
66.456000	340.000000
66.462000	336.000000
66.468000	346.000000
66.474000	346.000000
66.480000	338.000000
66.486000	371.000000
66.492000	336.000000
66.498000	351.000000
66.504000	350.000000
66.510000	331.000000
66.516000	357.000000
66.522000	339.000000
66.528000	363.000000
66.534000	391.000000
66.540000	342.000000
66.546000	350.000000
66.552000	348.000000
66.558000	337.000000
66.564000	322.000000
66.570000	378.000000
66.576000	374.000000
66.582000	358.000000
66.588000	347.000000
66.594000	364.000000
66.600000	321.000000
66.606000	328.000000
66.612000	339.000000
66.618000	370.000000
66.624000	332.000000
66.630000	328.000000
66.636000	354.000000
66.642000	343.000000
66.648000	349.000000
66.654000	319.000000
66.660000	318.000000
66.666000	323.000000
66.672000	351.000000
66.678000	344.000000
66.684000	366.000000
66.690000	342.000000
66.696000	376.000000
66.702000	343.000000
66.708000	343.000000
66.714000	338.000000
66.720000	345.000000
66.726000	350.000000
66.732000	358.000000
66.738000	350.000000
66.744000	313.000000
66.750000	308.000000
66.756000	356.000000
66.762000	360.000000
66.768000	318.000000
66.774000	360.000000
66.780000	319.000000
66.786000	353.000000
66.792000	333.000000
66.798000	336.000000
66.804000	384.000000
66.810000	355.000000
66.816000	348.000000
66.822000	332.000000
66.828000	344.000000
66.834000	355.000000
66.840000	358.000000
66.846000	343.000000
66.852000	342.000000
66.858000	340.000000
66.864000	320.000000
66.870000	349.000000
66.876000	367.000000
66.882000	362.000000
66.888000	327.000000
66.894000	360.000000
66.900000	337.000000
66.906000	357.000000
66.912000	347.000000
66.918000	373.000000
66.924000	334.000000
66.930000	341.000000
66.936000	349.000000
66.942000	304.000000
66.948000	356.000000
66.954000	367.000000
66.960000	351.000000
66.966000	276.000000
66.972000	328.000000
66.978000	337.000000
66.984000	332.000000
66.990000	338.000000
66.996000	366.000000
67.002000	333.000000
67.008000	331.000000
67.014000	308.000000
67.020000	346.000000
67.026000	341.000000
67.032000	354.000000
67.038000	358.000000
67.044000	336.000000
67.050000	333.000000
67.056000	348.000000
67.062000	320.000000
67.068000	348.000000
67.074000	346.000000
67.080000	319.000000
67.086000	373.000000
67.092000	318.000000
67.098000	337.000000
67.104000	333.000000
67.110000	318.000000
67.116000	335.000000
67.122000	355.000000
67.128000	348.000000
67.134000	390.000000
67.140000	324.000000
67.146000	322.000000
67.152000	351.000000
67.158000	343.000000
67.164000	309.000000
67.170000	322.000000
67.176000	331.000000
67.182000	319.000000
67.188000	357.000000
67.194000	354.000000
67.200000	377.000000
67.206000	339.000000
67.212000	326.000000
67.218000	318.000000
67.224000	306.000000
67.230000	319.000000
67.236000	308.000000
67.242000	311.000000
67.248000	304.000000
67.254000	310.000000
67.260000	315.000000
67.266000	324.000000
67.272000	302.000000
67.278000	341.000000
67.284000	322.000000
67.290000	320.000000
67.296000	318.000000
67.302000	364.000000
67.308000	322.000000
67.314000	315.000000
67.320000	305.000000
67.326000	327.000000
67.332000	318.000000
67.338000	301.000000
67.344000	311.000000
67.350000	306.000000
67.356000	308.000000
67.362000	340.000000
67.368000	316.000000
67.374000	320.000000
67.380000	345.000000
67.386000	318.000000
67.392000	340.000000
67.398000	335.000000
67.404000	318.000000
67.410000	356.000000
67.416000	313.000000
67.422000	347.000000
67.428000	335.000000
67.434000	350.000000
67.440000	301.000000
67.446000	312.000000
67.452000	322.000000
67.458000	347.000000
67.464000	349.000000
67.470000	314.000000
67.476000	306.000000
67.482000	312.000000
67.488000	304.000000
67.494000	356.000000
67.500000	308.000000
67.506000	280.000000
67.512000	301.000000
67.518000	332.000000
67.524000	331.000000
67.530000	333.000000
67.536000	320.000000
67.542000	334.000000
67.548000	310.000000
67.554000	329.000000
67.560000	324.000000
67.566000	305.000000
67.572000	329.000000
67.578000	331.000000
67.584000	332.000000
67.590000	320.000000
67.596000	306.000000
67.602000	310.000000
67.608000	325.000000
67.614000	320.000000
67.620000	334.000000
67.626000	327.000000
67.632000	306.000000
67.638000	317.000000
67.644000	350.000000
67.650000	313.000000
67.656000	333.000000
67.662000	330.000000
67.668000	326.000000
67.674000	303.000000
67.680000	322.000000
67.686000	318.000000
67.692000	318.000000
67.698000	325.000000
67.704000	289.000000
67.710000	326.000000
67.716000	314.000000
67.722000	304.000000
67.728000	314.000000
67.734000	329.000000
67.740000	339.000000
67.746000	337.000000
67.752000	335.000000
67.758000	276.000000
67.764000	331.000000
67.770000	304.000000
67.776000	338.000000
67.782000	332.000000
67.788000	301.000000
67.794000	321.000000
67.800000	303.000000
67.806000	283.000000
67.812000	295.000000
67.818000	322.000000
67.824000	324.000000
67.830000	311.000000
67.836000	330.000000
67.842000	325.000000
67.848000	302.000000
67.854000	330.000000
67.860000	304.000000
67.866000	290.000000
67.872000	338.000000
67.878000	321.000000
67.884000	326.000000
67.890000	350.000000
67.896000	312.000000
67.902000	317.000000
67.908000	327.000000
67.914000	321.000000
67.920000	317.000000
67.926000	325.000000
67.932000	327.000000
67.938000	306.000000
67.944000	309.000000
67.950000	291.000000
67.956000	305.000000
67.962000	336.000000
67.968000	332.000000
67.974000	314.000000
67.980000	298.000000
67.986000	306.000000
67.992000	331.000000
67.998000	330.000000
68.004000	323.000000
68.010000	316.000000
68.016000	344.000000
68.022000	329.000000
68.028000	289.000000
68.034000	317.000000
68.040000	320.000000
68.046000	315.000000
68.052000	311.000000
68.058000	314.000000
68.064000	342.000000
68.070000	353.000000
68.076000	341.000000
68.082000	340.000000
68.088000	340.000000
68.094000	327.000000
68.100000	322.000000
68.106000	313.000000
68.112000	284.000000
68.118000	336.000000
68.124000	308.000000
68.130000	320.000000
68.136000	309.000000
68.142000	339.000000
68.148000	343.000000
68.154000	304.000000
68.160000	319.000000
68.166000	344.000000
68.172000	321.000000
68.178000	317.000000
68.184000	334.000000
68.190000	314.000000
68.196000	351.000000
68.202000	341.000000
68.208000	347.000000
68.214000	340.000000
68.220000	314.000000
68.226000	317.000000
68.232000	331.000000
68.238000	338.000000
68.244000	346.000000
68.250000	308.000000
68.256000	294.000000
68.262000	329.000000
68.268000	338.000000
68.274000	293.000000
68.280000	330.000000
68.286000	296.000000
68.292000	328.000000
68.298000	345.000000
68.304000	327.000000
68.310000	325.000000
68.316000	297.000000
68.322000	304.000000
68.328000	322.000000
68.334000	346.000000
68.340000	315.000000
68.346000	350.000000
68.352000	333.000000
68.358000	284.000000
68.364000	330.000000
68.370000	343.000000
68.376000	327.000000
68.382000	359.000000
68.388000	319.000000
68.394000	316.000000
68.400000	314.000000
68.406000	343.000000
68.412000	295.000000
68.418000	326.000000
68.424000	327.000000
68.430000	343.000000
68.436000	302.000000
68.442000	309.000000
68.448000	339.000000
68.454000	332.000000
68.460000	310.000000
68.466000	328.000000
68.472000	300.000000
68.478000	309.000000
68.484000	302.000000
68.490000	349.000000
68.496000	333.000000
68.502000	334.000000
68.508000	338.000000
68.514000	300.000000
68.520000	310.000000
68.526000	323.000000
68.532000	308.000000
68.538000	313.000000
68.544000	288.000000
68.550000	352.000000
68.556000	305.000000
68.562000	301.000000
68.568000	313.000000
68.574000	313.000000
68.580000	333.000000
68.586000	329.000000
68.592000	332.000000
68.598000	320.000000
68.604000	317.000000
68.610000	343.000000
68.616000	324.000000
68.622000	303.000000
68.628000	334.000000
68.634000	328.000000
68.640000	316.000000
68.646000	321.000000
68.652000	335.000000
68.658000	329.000000
68.664000	341.000000
68.670000	302.000000
68.676000	336.000000
68.682000	342.000000
68.688000	318.000000
68.694000	307.000000
68.700000	308.000000
68.706000	354.000000
68.712000	349.000000
68.718000	316.000000
68.724000	360.000000
68.730000	331.000000
68.736000	309.000000
68.742000	333.000000
68.748000	336.000000
68.754000	316.000000
68.760000	330.000000
68.766000	319.000000
68.772000	298.000000
68.778000	314.000000
68.784000	343.000000
68.790000	336.000000
68.796000	326.000000
68.802000	329.000000
68.808000	315.000000
68.814000	296.000000
68.820000	323.000000
68.826000	308.000000
68.832000	327.000000
68.838000	306.000000
68.844000	362.000000
68.850000	324.000000
68.856000	340.000000
68.862000	334.000000
68.868000	338.000000
68.874000	340.000000
68.880000	325.000000
68.886000	338.000000
68.892000	331.000000
68.898000	327.000000
68.904000	340.000000
68.910000	310.000000
68.916000	310.000000
68.922000	322.000000
68.928000	308.000000
68.934000	339.000000
68.940000	332.000000
68.946000	354.000000
68.952000	336.000000
68.958000	303.000000
68.964000	310.000000
68.970000	300.000000
68.976000	358.000000
68.982000	319.000000
68.988000	331.000000
68.994000	333.000000
69.000000	321.000000
69.006000	326.000000
69.012000	340.000000
69.018000	323.000000
69.024000	324.000000
69.030000	332.000000
69.036000	294.000000
69.042000	324.000000
69.048000	314.000000
69.054000	368.000000
69.060000	356.000000
69.066000	328.000000
69.072000	343.000000
69.078000	300.000000
69.084000	322.000000
69.090000	332.000000
69.096000	333.000000
69.102000	350.000000
69.108000	303.000000
69.114000	314.000000
69.120000	335.000000
69.126000	354.000000
69.132000	328.000000
69.138000	311.000000
69.144000	335.000000
69.150000	326.000000
69.156000	326.000000
69.162000	294.000000
69.168000	330.000000
69.174000	310.000000
69.180000	332.000000
69.186000	348.000000
69.192000	333.000000
69.198000	324.000000
69.204000	328.000000
69.210000	323.000000
69.216000	368.000000
69.222000	310.000000
69.228000	320.000000
69.234000	349.000000
69.240000	326.000000
69.246000	295.000000
69.252000	342.000000
69.258000	355.000000
69.264000	318.000000
69.270000	342.000000
69.276000	369.000000
69.282000	324.000000
69.288000	331.000000
69.294000	330.000000
69.300000	358.000000
69.306000	369.000000
69.312000	322.000000
69.318000	350.000000
69.324000	321.000000
69.330000	305.000000
69.336000	319.000000
69.342000	289.000000
69.348000	326.000000
69.354000	342.000000
69.360000	319.000000
69.366000	327.000000
69.372000	340.000000
69.378000	353.000000
69.384000	382.000000
69.390000	341.000000
69.396000	307.000000
69.402000	317.000000
69.408000	327.000000
69.414000	346.000000
69.420000	339.000000
69.426000	353.000000
69.432000	328.000000
69.438000	338.000000
69.444000	306.000000
69.450000	338.000000
69.456000	342.000000
69.462000	331.000000
69.468000	335.000000
69.474000	321.000000
69.480000	345.000000
69.486000	322.000000
69.492000	338.000000
69.498000	344.000000
69.504000	306.000000
69.510000	331.000000
69.516000	326.000000
69.522000	318.000000
69.528000	339.000000
69.534000	352.000000
69.540000	311.000000
69.546000	356.000000
69.552000	353.000000
69.558000	328.000000
69.564000	356.000000
69.570000	332.000000
69.576000	357.000000
69.582000	317.000000
69.588000	334.000000
69.594000	333.000000
69.600000	357.000000
69.606000	346.000000
69.612000	343.000000
69.618000	350.000000
69.624000	292.000000
69.630000	351.000000
69.636000	337.000000
69.642000	330.000000
69.648000	325.000000
69.654000	330.000000
69.660000	357.000000
69.666000	369.000000
69.672000	375.000000
69.678000	350.000000
69.684000	356.000000
69.690000	343.000000
69.696000	314.000000
69.702000	375.000000
69.708000	334.000000
69.714000	335.000000
69.720000	318.000000
69.726000	331.000000
69.732000	332.000000
69.738000	337.000000
69.744000	347.000000
69.750000	343.000000
69.756000	352.000000
69.762000	356.000000
69.768000	323.000000
69.774000	371.000000
69.780000	321.000000
69.786000	379.000000
69.792000	325.000000
69.798000	317.000000
69.804000	346.000000
69.810000	345.000000
69.816000	339.000000
69.822000	326.000000
69.828000	375.000000
69.834000	340.000000
69.840000	351.000000
69.846000	343.000000
69.852000	371.000000
69.858000	331.000000
69.864000	361.000000
69.870000	365.000000
69.876000	344.000000
69.882000	368.000000
69.888000	376.000000
69.894000	332.000000
69.900000	345.000000
69.906000	368.000000
69.912000	356.000000
69.918000	366.000000
69.924000	394.000000
69.930000	365.000000
69.936000	387.000000
69.942000	421.000000
69.948000	350.000000
69.954000	408.000000
69.960000	332.000000
69.966000	380.000000
69.972000	380.000000
69.978000	391.000000
69.984000	369.000000
69.990000	347.000000
69.996000	407.000000
70.002000	355.000000
70.008000	415.000000
70.014000	384.000000
70.020000	401.000000
70.026000	374.000000
70.032000	422.000000
70.038000	380.000000
70.044000	358.000000
70.050000	364.000000
70.056000	420.000000
70.062000	416.000000
70.068000	357.000000
70.074000	407.000000
70.080000	400.000000
70.086000	379.000000
70.092000	408.000000
70.098000	382.000000
70.104000	433.000000
70.110000	379.000000
70.116000	384.000000
70.122000	389.000000
70.128000	413.000000
70.134000	406.000000
70.140000	374.000000
70.146000	385.000000
70.152000	412.000000
70.158000	431.000000
70.164000	374.000000
70.170000	400.000000
70.176000	420.000000
70.182000	417.000000
70.188000	424.000000
70.194000	412.000000
70.200000	439.000000
70.206000	424.000000
70.212000	424.000000
70.218000	387.000000
70.224000	427.000000
70.230000	442.000000
70.236000	421.000000
70.242000	431.000000
70.248000	446.000000
70.254000	436.000000
70.260000	442.000000
70.266000	410.000000
70.272000	419.000000
70.278000	490.000000
70.284000	426.000000
70.290000	390.000000
70.296000	436.000000
70.302000	431.000000
70.308000	477.000000
70.314000	431.000000
70.320000	434.000000
70.326000	462.000000
70.332000	431.000000
70.338000	490.000000
70.344000	470.000000
70.350000	452.000000
70.356000	506.000000
70.362000	488.000000
70.368000	435.000000
70.374000	469.000000
70.380000	483.000000
70.386000	487.000000
70.392000	471.000000
70.398000	512.000000
70.404000	528.000000
70.410000	471.000000
70.416000	507.000000
70.422000	479.000000
70.428000	522.000000
70.434000	503.000000
70.440000	557.000000
70.446000	532.000000
70.452000	542.000000
70.458000	503.000000
70.464000	549.000000
70.470000	552.000000
70.476000	573.000000
70.482000	512.000000
70.488000	551.000000
70.494000	559.000000
70.500000	581.000000
70.506000	593.000000
70.512000	573.000000
70.518000	603.000000
70.524000	607.000000
70.530000	627.000000
70.536000	616.000000
70.542000	627.000000
70.548000	620.000000
70.554000	666.000000
70.560000	620.000000
70.566000	690.000000
70.572000	663.000000
70.578000	677.000000
70.584000	682.000000
70.590000	747.000000
70.596000	715.000000
70.602000	682.000000
70.608000	733.000000
70.614000	724.000000
70.620000	734.000000
70.626000	792.000000
70.632000	814.000000
70.638000	747.000000
70.644000	789.000000
70.650000	754.000000
70.656000	762.000000
70.662000	804.000000
70.668000	884.000000
70.674000	862.000000
70.680000	893.000000
70.686000	909.000000
70.692000	942.000000
70.698000	936.000000
70.704000	984.000000
70.710000	1004.000000
70.716000	1000.000000
70.722000	960.000000
70.728000	1040.000000
70.734000	1069.000000
70.740000	1116.000000
70.746000	1163.000000
70.752000	1199.000000
70.758000	1195.000000
70.764000	1221.000000
70.770000	1312.000000
70.776000	1277.000000
70.782000	1306.000000
70.788000	1347.000000
70.794000	1431.000000
70.800000	1518.000000
70.806000	1533.000000
70.812000	1559.000000
70.818000	1579.000000
70.824000	1611.000000
70.830000	1650.000000
70.836000	1682.000000
70.842000	1753.000000
70.848000	1827.000000
70.854000	1851.000000
70.860000	1904.000000
70.866000	1947.000000
70.872000	1963.000000
70.878000	2022.000000
70.884000	2014.000000
70.890000	2068.000000
70.896000	2196.000000
70.902000	2243.000000
70.908000	2260.000000
70.914000	2267.000000
70.920000	2323.000000
70.926000	2375.000000
70.932000	2521.000000
70.938000	2396.000000
70.944000	2401.000000
70.950000	2494.000000
70.956000	2482.000000
70.962000	2539.000000
70.968000	2446.000000
70.974000	2379.000000
70.980000	2336.000000
70.986000	2315.000000
70.992000	2402.000000
70.998000	2310.000000
71.004000	2254.000000
71.010000	2174.000000
71.016000	2134.000000
71.022000	2083.000000
71.028000	2094.000000
71.034000	2028.000000
71.040000	1999.000000
71.046000	1891.000000
71.052000	1953.000000
71.058000	1870.000000
71.064000	1882.000000
71.070000	1858.000000
71.076000	1820.000000
71.082000	1784.000000
71.088000	1809.000000
71.094000	1776.000000
71.100000	1731.000000
71.106000	1677.000000
71.112000	1739.000000
71.118000	1721.000000
71.124000	1664.000000
71.130000	1722.000000
71.136000	1610.000000
71.142000	1699.000000
71.148000	1633.000000
71.154000	1634.000000
71.160000	1608.000000
71.166000	1607.000000
71.172000	1579.000000
71.178000	1560.000000
71.184000	1521.000000
71.190000	1436.000000
71.196000	1413.000000
71.202000	1454.000000
71.208000	1321.000000
71.214000	1223.000000
71.220000	1222.000000
71.226000	1255.000000
71.232000	1192.000000
71.238000	1126.000000
71.244000	1155.000000
71.250000	1071.000000
71.256000	1086.000000
71.262000	1021.000000
71.268000	971.000000
71.274000	934.000000
71.280000	973.000000
71.286000	929.000000
71.292000	886.000000
71.298000	873.000000
71.304000	789.000000
71.310000	758.000000
71.316000	769.000000
71.322000	801.000000
71.328000	782.000000
71.334000	720.000000
71.340000	751.000000
71.346000	747.000000
71.352000	657.000000
71.358000	692.000000
71.364000	698.000000
71.370000	672.000000
71.376000	655.000000
71.382000	622.000000
71.388000	636.000000
71.394000	614.000000
71.400000	587.000000
71.406000	617.000000
71.412000	595.000000
71.418000	543.000000
71.424000	591.000000
71.430000	546.000000
71.436000	575.000000
71.442000	529.000000
71.448000	520.000000
71.454000	554.000000
71.460000	522.000000
71.466000	554.000000
71.472000	566.000000
71.478000	477.000000
71.484000	505.000000
71.490000	507.000000
71.496000	501.000000
71.502000	517.000000
71.508000	512.000000
71.514000	492.000000
71.520000	447.000000
71.526000	462.000000
71.532000	458.000000
71.538000	471.000000
71.544000	453.000000
71.550000	475.000000
71.556000	446.000000
71.562000	421.000000
71.568000	464.000000
71.574000	432.000000
71.580000	467.000000
71.586000	461.000000
71.592000	419.000000
71.598000	419.000000
71.604000	446.000000
71.610000	383.000000
71.616000	421.000000
71.622000	437.000000
71.628000	434.000000
71.634000	404.000000
71.640000	433.000000
71.646000	393.000000
71.652000	404.000000
71.658000	408.000000
71.664000	394.000000
71.670000	377.000000
71.676000	391.000000
71.682000	400.000000
71.688000	417.000000
71.694000	374.000000
71.700000	390.000000
71.706000	389.000000
71.712000	373.000000
71.718000	365.000000
71.724000	377.000000
71.730000	416.000000
71.736000	380.000000
71.742000	387.000000
71.748000	376.000000
71.754000	350.000000
71.760000	367.000000
71.766000	379.000000
71.772000	373.000000
71.778000	378.000000
71.784000	367.000000
71.790000	351.000000
71.796000	416.000000
71.802000	356.000000
71.808000	392.000000
71.814000	374.000000
71.820000	346.000000
71.826000	379.000000
71.832000	393.000000
71.838000	360.000000
71.844000	373.000000
71.850000	340.000000
71.856000	367.000000
71.862000	402.000000
71.868000	345.000000
71.874000	358.000000
71.880000	327.000000
71.886000	348.000000
71.892000	367.000000
71.898000	360.000000
71.904000	358.000000
71.910000	339.000000
71.916000	332.000000
71.922000	328.000000
71.928000	350.000000
71.934000	368.000000
71.940000	365.000000
71.946000	359.000000
71.952000	325.000000
71.958000	367.000000
71.964000	322.000000
71.970000	339.000000
71.976000	360.000000
71.982000	348.000000
71.988000	346.000000
71.994000	342.000000
72.000000	303.000000
72.006000	356.000000
72.012000	322.000000
72.018000	338.000000
72.024000	334.000000
72.030000	322.000000
72.036000	375.000000
72.042000	335.000000
72.048000	353.000000
72.054000	330.000000
72.060000	342.000000
72.066000	323.000000
72.072000	352.000000
72.078000	306.000000
72.084000	326.000000
72.090000	359.000000
72.096000	351.000000
72.102000	342.000000
72.108000	386.000000
72.114000	369.000000
72.120000	303.000000
72.126000	352.000000
72.132000	331.000000
72.138000	346.000000
72.144000	317.000000
72.150000	340.000000
72.156000	317.000000
72.162000	313.000000
72.168000	361.000000
72.174000	354.000000
72.180000	315.000000
72.186000	322.000000
72.192000	323.000000
72.198000	347.000000
72.204000	313.000000
72.210000	335.000000
72.216000	380.000000
72.222000	336.000000
72.228000	306.000000
72.234000	339.000000
72.240000	321.000000
72.246000	332.000000
72.252000	365.000000
72.258000	323.000000
72.264000	310.000000
72.270000	358.000000
72.276000	324.000000
72.282000	315.000000
72.288000	329.000000
72.294000	346.000000
72.300000	322.000000
72.306000	346.000000
72.312000	311.000000
72.318000	332.000000
72.324000	313.000000
72.330000	331.000000
72.336000	311.000000
72.342000	303.000000
72.348000	359.000000
72.354000	340.000000
72.360000	337.000000
72.366000	285.000000
72.372000	316.000000
72.378000	363.000000
72.384000	310.000000
72.390000	322.000000
72.396000	318.000000
72.402000	330.000000
72.408000	331.000000
72.414000	289.000000
72.420000	347.000000
72.426000	325.000000
72.432000	352.000000
72.438000	339.000000
72.444000	327.000000
72.450000	326.000000
72.456000	323.000000
72.462000	320.000000
72.468000	314.000000
72.474000	328.000000
72.480000	315.000000
72.486000	326.000000
72.492000	333.000000
72.498000	348.000000
72.504000	315.000000
72.510000	330.000000
72.516000	326.000000
72.522000	318.000000
72.528000	311.000000
72.534000	322.000000
72.540000	303.000000
72.546000	333.000000
72.552000	336.000000
72.558000	317.000000
72.564000	343.000000
72.570000	333.000000
72.576000	291.000000
72.582000	374.000000
72.588000	341.000000
72.594000	323.000000
72.600000	311.000000
72.606000	359.000000
72.612000	344.000000
72.618000	314.000000
72.624000	345.000000
72.630000	294.000000
72.636000	340.000000
72.642000	318.000000
72.648000	318.000000
72.654000	307.000000
72.660000	325.000000
72.666000	311.000000
72.672000	304.000000
72.678000	304.000000
72.684000	340.000000
72.690000	326.000000
72.696000	305.000000
72.702000	319.000000
72.708000	319.000000
72.714000	311.000000
72.720000	336.000000
72.726000	330.000000
72.732000	297.000000
72.738000	308.000000
72.744000	318.000000
72.750000	314.000000
72.756000	286.000000
72.762000	320.000000
72.768000	307.000000
72.774000	336.000000
72.780000	305.000000
72.786000	330.000000
72.792000	304.000000
72.798000	321.000000
72.804000	299.000000
72.810000	352.000000
72.816000	323.000000
72.822000	316.000000
72.828000	329.000000
72.834000	283.000000
72.840000	291.000000
72.846000	316.000000
72.852000	336.000000
72.858000	309.000000
72.864000	288.000000
72.870000	361.000000
72.876000	305.000000
72.882000	300.000000
72.888000	324.000000
72.894000	295.000000
72.900000	319.000000
72.906000	306.000000
72.912000	288.000000
72.918000	315.000000
72.924000	333.000000
72.930000	342.000000
72.936000	302.000000
72.942000	315.000000
72.948000	289.000000
72.954000	332.000000
72.960000	316.000000
72.966000	359.000000
72.972000	328.000000
72.978000	293.000000
72.984000	325.000000
72.990000	274.000000
72.996000	312.000000
73.002000	294.000000
73.008000	324.000000
73.014000	303.000000
73.020000	304.000000
73.026000	300.000000
73.032000	318.000000
73.038000	341.000000
73.044000	330.000000
73.050000	317.000000
73.056000	323.000000
73.062000	331.000000
73.068000	310.000000
73.074000	345.000000
73.080000	310.000000
73.086000	306.000000
73.092000	320.000000
73.098000	319.000000
73.104000	354.000000
73.110000	334.000000
73.116000	312.000000
73.122000	326.000000
73.128000	313.000000
73.134000	315.000000
73.140000	326.000000
73.146000	326.000000
73.152000	327.000000
73.158000	311.000000
73.164000	295.000000
73.170000	335.000000
73.176000	335.000000
73.182000	325.000000
73.188000	325.000000
73.194000	329.000000
73.200000	318.000000
73.206000	333.000000
73.212000	310.000000
73.218000	322.000000
73.224000	299.000000
73.230000	323.000000
73.236000	292.000000
73.242000	305.000000
73.248000	328.000000
73.254000	320.000000
73.260000	328.000000
73.266000	314.000000
73.272000	331.000000
73.278000	321.000000
73.284000	312.000000
73.290000	290.000000
73.296000	312.000000
73.302000	319.000000
73.308000	303.000000
73.314000	342.000000
73.320000	313.000000
73.326000	331.000000
73.332000	340.000000
73.338000	349.000000
73.344000	359.000000
73.350000	298.000000
73.356000	327.000000
73.362000	315.000000
73.368000	303.000000
73.374000	332.000000
73.380000	293.000000
73.386000	326.000000
73.392000	301.000000
73.398000	328.000000
73.404000	309.000000
73.410000	324.000000
73.416000	310.000000
73.422000	312.000000
73.428000	295.000000
73.434000	303.000000
73.440000	333.000000
73.446000	316.000000
73.452000	302.000000
73.458000	313.000000
73.464000	356.000000
73.470000	322.000000
73.476000	310.000000
73.482000	292.000000
73.488000	335.000000
73.494000	326.000000
73.500000	307.000000
73.506000	314.000000
73.512000	304.000000
73.518000	344.000000
73.524000	334.000000
73.530000	335.000000
73.536000	339.000000
73.542000	301.000000
73.548000	323.000000
73.554000	338.000000
73.560000	319.000000
73.566000	319.000000
73.572000	328.000000
73.578000	342.000000
73.584000	341.000000
73.590000	300.000000
73.596000	346.000000
73.602000	306.000000
73.608000	350.000000
73.614000	342.000000
73.620000	324.000000
73.626000	335.000000
73.632000	319.000000
73.638000	340.000000
73.644000	330.000000
73.650000	327.000000
73.656000	330.000000
73.662000	314.000000
73.668000	366.000000
73.674000	344.000000
73.680000	340.000000
73.686000	345.000000
73.692000	325.000000
73.698000	347.000000
73.704000	360.000000
73.710000	336.000000
73.716000	375.000000
73.722000	328.000000
73.728000	345.000000
73.734000	376.000000
73.740000	365.000000
73.746000	363.000000
73.752000	363.000000
73.758000	370.000000
73.764000	362.000000
73.770000	372.000000
73.776000	363.000000
73.782000	380.000000
73.788000	367.000000
73.794000	386.000000
73.800000	370.000000
73.806000	414.000000
73.812000	353.000000
73.818000	376.000000
73.824000	402.000000
73.830000	381.000000
73.836000	372.000000
73.842000	393.000000
73.848000	429.000000
73.854000	419.000000
73.860000	419.000000
73.866000	383.000000
73.872000	444.000000
73.878000	456.000000
73.884000	425.000000
73.890000	398.000000
73.896000	443.000000
73.902000	407.000000
73.908000	436.000000
73.914000	481.000000
73.920000	443.000000
73.926000	427.000000
73.932000	439.000000
73.938000	443.000000
73.944000	418.000000
73.950000	433.000000
73.956000	451.000000
73.962000	465.000000
73.968000	460.000000
73.974000	458.000000
73.980000	454.000000
73.986000	422.000000
73.992000	479.000000
73.998000	454.000000
74.004000	439.000000
74.010000	424.000000
74.016000	471.000000
74.022000	433.000000
74.028000	424.000000
74.034000	442.000000
74.040000	408.000000
74.046000	430.000000
74.052000	442.000000
74.058000	429.000000
74.064000	412.000000
74.070000	436.000000
74.076000	428.000000
74.082000	479.000000
74.088000	412.000000
74.094000	406.000000
74.100000	441.000000
74.106000	406.000000
74.112000	435.000000
74.118000	432.000000
74.124000	445.000000
74.130000	400.000000
74.136000	411.000000
74.142000	385.000000
74.148000	414.000000
74.154000	427.000000
74.160000	387.000000
74.166000	402.000000
74.172000	369.000000
74.178000	410.000000
74.184000	443.000000
74.190000	389.000000
74.196000	380.000000
74.202000	384.000000
74.208000	406.000000
74.214000	402.000000
74.220000	374.000000
74.226000	409.000000
74.232000	378.000000
74.238000	406.000000
74.244000	394.000000
74.250000	415.000000
74.256000	359.000000
74.262000	364.000000
74.268000	361.000000
74.274000	361.000000
74.280000	399.000000
74.286000	374.000000
74.292000	386.000000
74.298000	327.000000
74.304000	348.000000
74.310000	326.000000
74.316000	374.000000
74.322000	348.000000
74.328000	366.000000
74.334000	343.000000
74.340000	336.000000
74.346000	349.000000
74.352000	381.000000
74.358000	355.000000
74.364000	358.000000
74.370000	358.000000
74.376000	352.000000
74.382000	347.000000
74.388000	321.000000
74.394000	336.000000
74.400000	357.000000
74.406000	327.000000
74.412000	376.000000
74.418000	330.000000
74.424000	312.000000
74.430000	341.000000
74.436000	330.000000
74.442000	335.000000
74.448000	341.000000
74.454000	331.000000
74.460000	314.000000
74.466000	301.000000
74.472000	329.000000
74.478000	340.000000
74.484000	353.000000
74.490000	311.000000
74.496000	338.000000
74.502000	329.000000
74.508000	316.000000
74.514000	321.000000
74.520000	338.000000
74.526000	333.000000
74.532000	314.000000
74.538000	327.000000
74.544000	320.000000
74.550000	301.000000
74.556000	296.000000
74.562000	292.000000
74.568000	311.000000
74.574000	298.000000
74.580000	300.000000
74.586000	315.000000
74.592000	314.000000
74.598000	279.000000
74.604000	288.000000
74.610000	331.000000
74.616000	332.000000
74.622000	322.000000
74.628000	333.000000
74.634000	327.000000
74.640000	354.000000
74.646000	315.000000
74.652000	342.000000
74.658000	314.000000
74.664000	309.000000
74.670000	318.000000
74.676000	300.000000
74.682000	292.000000
74.688000	341.000000
74.694000	313.000000
74.700000	310.000000
74.706000	312.000000
74.712000	284.000000
74.718000	304.000000
74.724000	314.000000
74.730000	329.000000
74.736000	316.000000
74.742000	307.000000
74.748000	338.000000
74.754000	296.000000
74.760000	341.000000
74.766000	331.000000
74.772000	372.000000
74.778000	298.000000
74.784000	335.000000
74.790000	323.000000
74.796000	350.000000
74.802000	291.000000
74.808000	304.000000
74.814000	344.000000
74.820000	356.000000
74.826000	330.000000
74.832000	329.000000
74.838000	346.000000
74.844000	268.000000
74.850000	335.000000
74.856000	343.000000
74.862000	370.000000
74.868000	373.000000
74.874000	326.000000
74.880000	349.000000
74.886000	331.000000
74.892000	320.000000
74.898000	331.000000
74.904000	353.000000
74.910000	359.000000
74.916000	348.000000
74.922000	351.000000
74.928000	358.000000
74.934000	367.000000
74.940000	369.000000
74.946000	348.000000
74.952000	368.000000
74.958000	352.000000
74.964000	348.000000
74.970000	348.000000
74.976000	346.000000
74.982000	339.000000
74.988000	395.000000
74.994000	343.000000
75.000000	369.000000
75.006000	357.000000
75.012000	374.000000
75.018000	352.000000
75.024000	370.000000
75.030000	356.000000
75.036000	343.000000
75.042000	362.000000
75.048000	356.000000
75.054000	347.000000
75.060000	353.000000
75.066000	347.000000
75.072000	364.000000
75.078000	314.000000
75.084000	300.000000
75.090000	355.000000
75.096000	363.000000
75.102000	339.000000
75.108000	317.000000
75.114000	363.000000
75.120000	347.000000
75.126000	306.000000
75.132000	349.000000
75.138000	286.000000
75.144000	347.000000
75.150000	297.000000
75.156000	337.000000
75.162000	312.000000
75.168000	312.000000
75.174000	311.000000
75.180000	326.000000
75.186000	367.000000
75.192000	323.000000
75.198000	321.000000
75.204000	332.000000
75.210000	315.000000
75.216000	335.000000
75.222000	333.000000
75.228000	323.000000
75.234000	359.000000
75.240000	319.000000
75.246000	309.000000
75.252000	343.000000
75.258000	337.000000
75.264000	336.000000
75.270000	338.000000
75.276000	299.000000
75.282000	337.000000
75.288000	328.000000
75.294000	283.000000
75.300000	313.000000
75.306000	334.000000
75.312000	334.000000
75.318000	329.000000
75.324000	318.000000
75.330000	321.000000
75.336000	318.000000
75.342000	334.000000
75.348000	356.000000
75.354000	311.000000
75.360000	320.000000
75.366000	305.000000
75.372000	295.000000
75.378000	303.000000
75.384000	292.000000
75.390000	307.000000
75.396000	334.000000
75.402000	331.000000
75.408000	324.000000
75.414000	326.000000
75.420000	320.000000
75.426000	312.000000
75.432000	303.000000
75.438000	293.000000
75.444000	311.000000
75.450000	309.000000
75.456000	285.000000
75.462000	318.000000
75.468000	305.000000
75.474000	283.000000
